#  E (eV)   dos(E)     Int dos(E) EFermi =    6.648 eV
   0.000  0.0000E+00  0.3200E+03
   0.010  0.0000E+00  0.3200E+03
   0.020  0.0000E+00  0.3200E+03
   0.030  0.0000E+00  0.3200E+03
   0.040  0.0000E+00  0.3200E+03
   0.050  0.0000E+00  0.3200E+03
   0.060  0.0000E+00  0.3200E+03
   0.070  0.0000E+00  0.3200E+03
   0.080  0.0000E+00  0.3200E+03
   0.090  0.0000E+00  0.3200E+03
   0.100  0.0000E+00  0.3200E+03
   0.110  0.0000E+00  0.3200E+03
   0.120  0.0000E+00  0.3200E+03
   0.130  0.0000E+00  0.3200E+03
   0.140  0.0000E+00  0.3200E+03
   0.150  0.0000E+00  0.3200E+03
   0.160  0.0000E+00  0.3200E+03
   0.170  0.0000E+00  0.3200E+03
   0.180  0.0000E+00  0.3200E+03
   0.190  0.0000E+00  0.3200E+03
   0.200  0.0000E+00  0.3200E+03
   0.210  0.0000E+00  0.3200E+03
   0.220  0.0000E+00  0.3200E+03
   0.230  0.0000E+00  0.3200E+03
   0.240  0.0000E+00  0.3200E+03
   0.250  0.0000E+00  0.3200E+03
   0.260  0.0000E+00  0.3200E+03
   0.270  0.0000E+00  0.3200E+03
   0.280  0.0000E+00  0.3200E+03
   0.290  0.0000E+00  0.3200E+03
   0.300  0.0000E+00  0.3200E+03
   0.310  0.0000E+00  0.3200E+03
   0.320  0.0000E+00  0.3200E+03
   0.330  0.0000E+00  0.3200E+03
   0.340  0.0000E+00  0.3200E+03
   0.350  0.0000E+00  0.3200E+03
   0.360  0.0000E+00  0.3200E+03
   0.370  0.0000E+00  0.3200E+03
   0.380  0.0000E+00  0.3200E+03
   0.390  0.0000E+00  0.3200E+03
   0.400  0.0000E+00  0.3200E+03
   0.410  0.0000E+00  0.3200E+03
   0.420  0.0000E+00  0.3200E+03
   0.430  0.0000E+00  0.3200E+03
   0.440  0.0000E+00  0.3200E+03
   0.450  0.0000E+00  0.3200E+03
   0.460  0.0000E+00  0.3200E+03
   0.470  0.0000E+00  0.3200E+03
   0.480  0.0000E+00  0.3200E+03
   0.490  0.0000E+00  0.3200E+03
   0.500  0.0000E+00  0.3200E+03
   0.510  0.0000E+00  0.3200E+03
   0.520  0.0000E+00  0.3200E+03
   0.530  0.0000E+00  0.3200E+03
   0.540  0.0000E+00  0.3200E+03
   0.550  0.0000E+00  0.3200E+03
   0.560  0.0000E+00  0.3200E+03
   0.570  0.0000E+00  0.3200E+03
   0.580  0.0000E+00  0.3200E+03
   0.590  0.0000E+00  0.3200E+03
   0.600  0.0000E+00  0.3200E+03
   0.610  0.0000E+00  0.3200E+03
   0.620  0.0000E+00  0.3200E+03
   0.630  0.0000E+00  0.3200E+03
   0.640  0.0000E+00  0.3200E+03
   0.650  0.0000E+00  0.3200E+03
   0.660  0.0000E+00  0.3200E+03
   0.670  0.0000E+00  0.3200E+03
   0.680  0.0000E+00  0.3200E+03
   0.690  0.0000E+00  0.3200E+03
   0.700  0.0000E+00  0.3200E+03
   0.710  0.0000E+00  0.3200E+03
   0.720  0.0000E+00  0.3200E+03
   0.730  0.0000E+00  0.3200E+03
   0.740  0.0000E+00  0.3200E+03
   0.750  0.0000E+00  0.3200E+03
   0.760  0.0000E+00  0.3200E+03
   0.770  0.0000E+00  0.3200E+03
   0.780  0.0000E+00  0.3200E+03
   0.790  0.0000E+00  0.3200E+03
   0.800  0.0000E+00  0.3200E+03
   0.810  0.0000E+00  0.3200E+03
   0.820  0.0000E+00  0.3200E+03
   0.830  0.0000E+00  0.3200E+03
   0.840  0.0000E+00  0.3200E+03
   0.850  0.0000E+00  0.3200E+03
   0.860  0.0000E+00  0.3200E+03
   0.870  0.0000E+00  0.3200E+03
   0.880  0.0000E+00  0.3200E+03
   0.890  0.0000E+00  0.3200E+03
   0.900  0.0000E+00  0.3200E+03
   0.910  0.0000E+00  0.3200E+03
   0.920  0.0000E+00  0.3200E+03
   0.930  0.0000E+00  0.3200E+03
   0.940  0.0000E+00  0.3200E+03
   0.950  0.0000E+00  0.3200E+03
   0.960  0.0000E+00  0.3200E+03
   0.970  0.0000E+00  0.3200E+03
   0.980  0.0000E+00  0.3200E+03
   0.990  0.0000E+00  0.3200E+03
   1.000  0.0000E+00  0.3200E+03
   1.010  0.0000E+00  0.3200E+03
   1.020  0.0000E+00  0.3200E+03
   1.030  0.0000E+00  0.3200E+03
   1.040  0.0000E+00  0.3200E+03
   1.050  0.0000E+00  0.3200E+03
   1.060  0.0000E+00  0.3200E+03
   1.070  0.0000E+00  0.3200E+03
   1.080  0.0000E+00  0.3200E+03
   1.090  0.0000E+00  0.3200E+03
   1.100  0.0000E+00  0.3200E+03
   1.110  0.0000E+00  0.3200E+03
   1.120  0.0000E+00  0.3200E+03
   1.130  0.0000E+00  0.3200E+03
   1.140  0.0000E+00  0.3200E+03
   1.150  0.0000E+00  0.3200E+03
   1.160  0.0000E+00  0.3200E+03
   1.170  0.0000E+00  0.3200E+03
   1.180  0.0000E+00  0.3200E+03
   1.190  0.0000E+00  0.3200E+03
   1.200  0.0000E+00  0.3200E+03
   1.210  0.0000E+00  0.3200E+03
   1.220  0.0000E+00  0.3200E+03
   1.230  0.0000E+00  0.3200E+03
   1.240  0.0000E+00  0.3200E+03
   1.250  0.0000E+00  0.3200E+03
   1.260  0.0000E+00  0.3200E+03
   1.270  0.0000E+00  0.3200E+03
   1.280  0.1392E+01  0.3200E+03
   1.290  0.1665E+01  0.3200E+03
   1.300  0.1939E+01  0.3201E+03
   1.310  0.1746E+01  0.3201E+03
   1.320  0.1633E+01  0.3201E+03
   1.330  0.1633E+01  0.3201E+03
   1.340  0.1678E+01  0.3201E+03
   1.350  0.1735E+01  0.3201E+03
   1.360  0.1798E+01  0.3202E+03
   1.370  0.1864E+01  0.3202E+03
   1.380  0.1775E+01  0.3202E+03
   1.390  0.1707E+01  0.3202E+03
   1.400  0.1697E+01  0.3202E+03
   1.410  0.1713E+01  0.3202E+03
   1.420  0.1728E+01  0.3203E+03
   1.430  0.1740E+01  0.3203E+03
   1.440  0.1768E+01  0.3203E+03
   1.450  0.3110E+01  0.3203E+03
   1.460  0.3412E+01  0.3204E+03
   1.470  0.3716E+01  0.3204E+03
   1.480  0.3714E+01  0.3204E+03
   1.490  0.3419E+01  0.3205E+03
   1.500  0.3418E+01  0.3205E+03
   1.510  0.3457E+01  0.3205E+03
   1.520  0.3527E+01  0.3206E+03
   1.530  0.3598E+01  0.3206E+03
   1.540  0.3677E+01  0.3206E+03
   1.550  0.3653E+01  0.3207E+03
   1.560  0.3592E+01  0.3207E+03
   1.570  0.3600E+01  0.3208E+03
   1.580  0.3642E+01  0.3208E+03
   1.590  0.3684E+01  0.3208E+03
   1.600  0.3726E+01  0.3209E+03
   1.610  0.3762E+01  0.3209E+03
   1.620  0.3783E+01  0.3209E+03
   1.630  0.3840E+01  0.3210E+03
   1.640  0.3905E+01  0.3210E+03
   1.650  0.3920E+01  0.3211E+03
   1.660  0.3923E+01  0.3211E+03
   1.670  0.3995E+01  0.3211E+03
   1.680  0.4079E+01  0.3212E+03
   1.690  0.4173E+01  0.3212E+03
   1.700  0.4266E+01  0.3213E+03
   1.710  0.4440E+01  0.3213E+03
   1.720  0.5483E+01  0.3214E+03
   1.730  0.4623E+01  0.3214E+03
   1.740  0.4849E+01  0.3215E+03
   1.750  0.3950E+01  0.3215E+03
   1.760  0.3883E+01  0.3215E+03
   1.770  0.3771E+01  0.3216E+03
   1.780  0.3453E+01  0.3216E+03
   1.790  0.3471E+01  0.3216E+03
   1.800  0.3494E+01  0.3217E+03
   1.810  0.3518E+01  0.3217E+03
   1.820  0.3542E+01  0.3218E+03
   1.830  0.3589E+01  0.3218E+03
   1.840  0.3642E+01  0.3218E+03
   1.850  0.3697E+01  0.3219E+03
   1.860  0.4731E+01  0.3219E+03
   1.870  0.6891E+01  0.3220E+03
   1.880  0.3683E+01  0.3220E+03
   1.890  0.3961E+01  0.3221E+03
   1.900  0.2947E+01  0.3221E+03
   1.910  0.2789E+01  0.3221E+03
   1.920  0.2632E+01  0.3221E+03
   1.930  0.2454E+01  0.3222E+03
   1.940  0.2170E+01  0.3222E+03
   1.950  0.2139E+01  0.3222E+03
   1.960  0.2109E+01  0.3222E+03
   1.970  0.2079E+01  0.3223E+03
   1.980  0.2048E+01  0.3223E+03
   1.990  0.2016E+01  0.3223E+03
   2.000  0.1979E+01  0.3223E+03
   2.010  0.1940E+01  0.3223E+03
   2.020  0.1811E+01  0.3224E+03
   2.030  0.1790E+01  0.3224E+03
   2.040  0.2160E+01  0.3224E+03
   2.050  0.2300E+01  0.3224E+03
   2.060  0.2441E+01  0.3224E+03
   2.070  0.3194E+01  0.3225E+03
   2.080  0.3955E+01  0.3225E+03
   2.090  0.2744E+01  0.3225E+03
   2.100  0.2558E+01  0.3226E+03
   2.110  0.2585E+01  0.3226E+03
   2.120  0.3021E+01  0.3226E+03
   2.130  0.3417E+01  0.3227E+03
   2.140  0.3813E+01  0.3227E+03
   2.150  0.3795E+01  0.3227E+03
   2.160  0.3296E+01  0.3228E+03
   2.170  0.3055E+01  0.3228E+03
   2.180  0.3045E+01  0.3228E+03
   2.190  0.3036E+01  0.3229E+03
   2.200  0.3026E+01  0.3229E+03
   2.210  0.3021E+01  0.3229E+03
   2.220  0.3052E+01  0.3229E+03
   2.230  0.3070E+01  0.3230E+03
   2.240  0.3041E+01  0.3230E+03
   2.250  0.3090E+01  0.3230E+03
   2.260  0.3140E+01  0.3231E+03
   2.270  0.5246E+01  0.3231E+03
   2.280  0.5777E+01  0.3232E+03
   2.290  0.5926E+01  0.3232E+03
   2.300  0.5586E+01  0.3233E+03
   2.310  0.5653E+01  0.3233E+03
   2.320  0.6076E+01  0.3234E+03
   2.330  0.6213E+01  0.3235E+03
   2.340  0.7088E+01  0.3235E+03
   2.350  0.7308E+01  0.3236E+03
   2.360  0.8246E+01  0.3237E+03
   2.370  0.8951E+01  0.3238E+03
   2.380  0.7177E+01  0.3239E+03
   2.390  0.7090E+01  0.3239E+03
   2.400  0.7099E+01  0.3240E+03
   2.410  0.8988E+01  0.3241E+03
   2.420  0.9476E+01  0.3242E+03
   2.430  0.9553E+01  0.3243E+03
   2.440  0.8856E+01  0.3244E+03
   2.450  0.9060E+01  0.3245E+03
   2.460  0.9545E+01  0.3246E+03
   2.470  0.1008E+02  0.3247E+03
   2.480  0.1087E+02  0.3248E+03
   2.490  0.1182E+02  0.3249E+03
   2.500  0.1021E+02  0.3250E+03
   2.510  0.8014E+01  0.3251E+03
   2.520  0.7926E+01  0.3252E+03
   2.530  0.7961E+01  0.3252E+03
   2.540  0.8038E+01  0.3253E+03
   2.550  0.8101E+01  0.3254E+03
   2.560  0.7800E+01  0.3255E+03
   2.570  0.7289E+01  0.3256E+03
   2.580  0.7083E+01  0.3256E+03
   2.590  0.7061E+01  0.3257E+03
   2.600  0.7049E+01  0.3258E+03
   2.610  0.7149E+01  0.3258E+03
   2.620  0.7085E+01  0.3259E+03
   2.630  0.7017E+01  0.3260E+03
   2.640  0.1170E+02  0.3261E+03
   2.650  0.9880E+01  0.3262E+03
   2.660  0.1014E+02  0.3263E+03
   2.670  0.1078E+02  0.3264E+03
   2.680  0.1114E+02  0.3265E+03
   2.690  0.1183E+02  0.3266E+03
   2.700  0.1162E+02  0.3267E+03
   2.710  0.1142E+02  0.3268E+03
   2.720  0.2728E+02  0.3270E+03
   2.730  0.1339E+02  0.3272E+03
   2.740  0.1278E+02  0.3273E+03
   2.750  0.1213E+02  0.3274E+03
   2.760  0.1243E+02  0.3276E+03
   2.770  0.1270E+02  0.3277E+03
   2.780  0.1226E+02  0.3278E+03
   2.790  0.1197E+02  0.3279E+03
   2.800  0.1137E+02  0.3280E+03
   2.810  0.1090E+02  0.3282E+03
   2.820  0.1035E+02  0.3283E+03
   2.830  0.9849E+01  0.3284E+03
   2.840  0.9788E+01  0.3285E+03
   2.850  0.9695E+01  0.3286E+03
   2.860  0.9654E+01  0.3287E+03
   2.870  0.9648E+01  0.3288E+03
   2.880  0.9655E+01  0.3289E+03
   2.890  0.9662E+01  0.3289E+03
   2.900  0.9746E+01  0.3290E+03
   2.910  0.9740E+01  0.3291E+03
   2.920  0.1086E+02  0.3293E+03
   2.930  0.1156E+02  0.3294E+03
   2.940  0.1189E+02  0.3295E+03
   2.950  0.1351E+02  0.3296E+03
   2.960  0.1445E+02  0.3297E+03
   2.970  0.1185E+02  0.3299E+03
   2.980  0.1068E+02  0.3300E+03
   2.990  0.1034E+02  0.3301E+03
   3.000  0.1022E+02  0.3302E+03
   3.010  0.1029E+02  0.3303E+03
   3.020  0.1048E+02  0.3304E+03
   3.030  0.1054E+02  0.3305E+03
   3.040  0.1045E+02  0.3306E+03
   3.050  0.1137E+02  0.3307E+03
   3.060  0.1111E+02  0.3308E+03
   3.070  0.1125E+02  0.3310E+03
   3.080  0.1134E+02  0.3311E+03
   3.090  0.1128E+02  0.3312E+03
   3.100  0.1112E+02  0.3313E+03
   3.110  0.1083E+02  0.3314E+03
   3.120  0.1049E+02  0.3315E+03
   3.130  0.1071E+02  0.3316E+03
   3.140  0.1133E+02  0.3317E+03
   3.150  0.1230E+02  0.3318E+03
   3.160  0.1164E+02  0.3320E+03
   3.170  0.1151E+02  0.3321E+03
   3.180  0.1106E+02  0.3322E+03
   3.190  0.1021E+02  0.3323E+03
   3.200  0.1004E+02  0.3324E+03
   3.210  0.9968E+01  0.3325E+03
   3.220  0.1000E+02  0.3326E+03
   3.230  0.1006E+02  0.3327E+03
   3.240  0.1164E+02  0.3328E+03
   3.250  0.1101E+02  0.3329E+03
   3.260  0.9925E+01  0.3330E+03
   3.270  0.9619E+01  0.3331E+03
   3.280  0.1048E+02  0.3332E+03
   3.290  0.1059E+02  0.3334E+03
   3.300  0.1143E+02  0.3335E+03
   3.310  0.1080E+02  0.3336E+03
   3.320  0.1023E+02  0.3337E+03
   3.330  0.1039E+02  0.3338E+03
   3.340  0.1071E+02  0.3339E+03
   3.350  0.1102E+02  0.3340E+03
   3.360  0.1104E+02  0.3341E+03
   3.370  0.1104E+02  0.3342E+03
   3.380  0.1115E+02  0.3343E+03
   3.390  0.1106E+02  0.3344E+03
   3.400  0.1093E+02  0.3346E+03
   3.410  0.1119E+02  0.3347E+03
   3.420  0.1153E+02  0.3348E+03
   3.430  0.1182E+02  0.3349E+03
   3.440  0.1234E+02  0.3350E+03
   3.450  0.1425E+02  0.3351E+03
   3.460  0.1731E+02  0.3353E+03
   3.470  0.1431E+02  0.3355E+03
   3.480  0.1418E+02  0.3357E+03
   3.490  0.1413E+02  0.3358E+03
   3.500  0.1355E+02  0.3359E+03
   3.510  0.1310E+02  0.3361E+03
   3.520  0.1285E+02  0.3362E+03
   3.530  0.1256E+02  0.3363E+03
   3.540  0.1241E+02  0.3364E+03
   3.550  0.1245E+02  0.3366E+03
   3.560  0.1234E+02  0.3367E+03
   3.570  0.1270E+02  0.3368E+03
   3.580  0.1363E+02  0.3370E+03
   3.590  0.1282E+02  0.3371E+03
   3.600  0.1281E+02  0.3372E+03
   3.610  0.1281E+02  0.3373E+03
   3.620  0.1276E+02  0.3375E+03
   3.630  0.1374E+02  0.3376E+03
   3.640  0.1385E+02  0.3377E+03
   3.650  0.1464E+02  0.3379E+03
   3.660  0.1567E+02  0.3380E+03
   3.670  0.1620E+02  0.3382E+03
   3.680  0.1542E+02  0.3384E+03
   3.690  0.1499E+02  0.3385E+03
   3.700  0.1470E+02  0.3387E+03
   3.710  0.1458E+02  0.3388E+03
   3.720  0.1550E+02  0.3389E+03
   3.730  0.2012E+02  0.3391E+03
   3.740  0.1316E+02  0.3393E+03
   3.750  0.1321E+02  0.3394E+03
   3.760  0.1325E+02  0.3395E+03
   3.770  0.1317E+02  0.3396E+03
   3.780  0.1330E+02  0.3398E+03
   3.790  0.1291E+02  0.3399E+03
   3.800  0.1225E+02  0.3400E+03
   3.810  0.1201E+02  0.3402E+03
   3.820  0.1178E+02  0.3403E+03
   3.830  0.1156E+02  0.3404E+03
   3.840  0.1141E+02  0.3405E+03
   3.850  0.1134E+02  0.3406E+03
   3.860  0.1128E+02  0.3407E+03
   3.870  0.1256E+02  0.3409E+03
   3.880  0.1263E+02  0.3410E+03
   3.890  0.1936E+02  0.3411E+03
   3.900  0.1575E+02  0.3413E+03
   3.910  0.1251E+02  0.3415E+03
   3.920  0.1193E+02  0.3416E+03
   3.930  0.1161E+02  0.3417E+03
   3.940  0.1143E+02  0.3418E+03
   3.950  0.1127E+02  0.3419E+03
   3.960  0.1116E+02  0.3420E+03
   3.970  0.1197E+02  0.3421E+03
   3.980  0.1267E+02  0.3423E+03
   3.990  0.1338E+02  0.3424E+03
   4.000  0.1367E+02  0.3425E+03
   4.010  0.1473E+02  0.3427E+03
   4.020  0.1226E+02  0.3428E+03
   4.030  0.1193E+02  0.3429E+03
   4.040  0.1181E+02  0.3431E+03
   4.050  0.1168E+02  0.3432E+03
   4.060  0.1161E+02  0.3433E+03
   4.070  0.1140E+02  0.3434E+03
   4.080  0.1139E+02  0.3435E+03
   4.090  0.1119E+02  0.3436E+03
   4.100  0.1096E+02  0.3437E+03
   4.110  0.1092E+02  0.3438E+03
   4.120  0.1120E+02  0.3440E+03
   4.130  0.1135E+02  0.3441E+03
   4.140  0.1156E+02  0.3442E+03
   4.150  0.1180E+02  0.3443E+03
   4.160  0.1211E+02  0.3444E+03
   4.170  0.1229E+02  0.3445E+03
   4.180  0.1180E+02  0.3447E+03
   4.190  0.1161E+02  0.3448E+03
   4.200  0.1163E+02  0.3449E+03
   4.210  0.1154E+02  0.3450E+03
   4.220  0.1182E+02  0.3451E+03
   4.230  0.1312E+02  0.3453E+03
   4.240  0.1394E+02  0.3454E+03
   4.250  0.1877E+02  0.3456E+03
   4.260  0.1436E+02  0.3457E+03
   4.270  0.1388E+02  0.3459E+03
   4.280  0.1369E+02  0.3460E+03
   4.290  0.1346E+02  0.3461E+03
   4.300  0.1310E+02  0.3463E+03
   4.310  0.1259E+02  0.3464E+03
   4.320  0.1259E+02  0.3465E+03
   4.330  0.1257E+02  0.3467E+03
   4.340  0.1253E+02  0.3468E+03
   4.350  0.1342E+02  0.3469E+03
   4.360  0.1362E+02  0.3470E+03
   4.370  0.1376E+02  0.3472E+03
   4.380  0.1384E+02  0.3473E+03
   4.390  0.1393E+02  0.3475E+03
   4.400  0.1226E+02  0.3476E+03
   4.410  0.1168E+02  0.3477E+03
   4.420  0.1151E+02  0.3478E+03
   4.430  0.1159E+02  0.3479E+03
   4.440  0.1256E+02  0.3481E+03
   4.450  0.1188E+02  0.3482E+03
   4.460  0.1126E+02  0.3483E+03
   4.470  0.1095E+02  0.3484E+03
   4.480  0.1094E+02  0.3485E+03
   4.490  0.1213E+02  0.3486E+03
   4.500  0.1325E+02  0.3488E+03
   4.510  0.1294E+02  0.3489E+03
   4.520  0.1271E+02  0.3490E+03
   4.530  0.1212E+02  0.3492E+03
   4.540  0.1188E+02  0.3493E+03
   4.550  0.1199E+02  0.3494E+03
   4.560  0.1223E+02  0.3495E+03
   4.570  0.1232E+02  0.3496E+03
   4.580  0.1231E+02  0.3498E+03
   4.590  0.1373E+02  0.3499E+03
   4.600  0.1415E+02  0.3500E+03
   4.610  0.1502E+02  0.3502E+03
   4.620  0.1627E+02  0.3503E+03
   4.630  0.1442E+02  0.3505E+03
   4.640  0.1437E+02  0.3506E+03
   4.650  0.1453E+02  0.3508E+03
   4.660  0.1537E+02  0.3509E+03
   4.670  0.1517E+02  0.3511E+03
   4.680  0.1500E+02  0.3512E+03
   4.690  0.4735E+02  0.3514E+03
   4.700  0.1499E+02  0.3515E+03
   4.710  0.1391E+02  0.3517E+03
   4.720  0.1392E+02  0.3518E+03
   4.730  0.1343E+02  0.3519E+03
   4.740  0.1306E+02  0.3521E+03
   4.750  0.1581E+02  0.3522E+03
   4.760  0.1275E+02  0.3524E+03
   4.770  0.1201E+02  0.3525E+03
   4.780  0.1174E+02  0.3526E+03
   4.790  0.1151E+02  0.3527E+03
   4.800  0.1130E+02  0.3528E+03
   4.810  0.1107E+02  0.3529E+03
   4.820  0.1046E+02  0.3530E+03
   4.830  0.1045E+02  0.3532E+03
   4.840  0.1041E+02  0.3533E+03
   4.850  0.1033E+02  0.3534E+03
   4.860  0.1031E+02  0.3535E+03
   4.870  0.1019E+02  0.3536E+03
   4.880  0.9989E+01  0.3537E+03
   4.890  0.1012E+02  0.3538E+03
   4.900  0.9723E+01  0.3539E+03
   4.910  0.9696E+01  0.3540E+03
   4.920  0.1008E+02  0.3541E+03
   4.930  0.1045E+02  0.3542E+03
   4.940  0.1088E+02  0.3543E+03
   4.950  0.1144E+02  0.3544E+03
   4.960  0.1145E+02  0.3545E+03
   4.970  0.1144E+02  0.3546E+03
   4.980  0.1193E+02  0.3547E+03
   4.990  0.1635E+02  0.3549E+03
   5.000  0.1961E+02  0.3550E+03
   5.010  0.1793E+02  0.3552E+03
   5.020  0.1894E+02  0.3554E+03
   5.030  0.1639E+02  0.3556E+03
   5.040  0.1550E+02  0.3558E+03
   5.050  0.1443E+02  0.3559E+03
   5.060  0.1475E+02  0.3561E+03
   5.070  0.1179E+02  0.3562E+03
   5.080  0.1128E+02  0.3563E+03
   5.090  0.1077E+02  0.3564E+03
   5.100  0.1110E+02  0.3566E+03
   5.110  0.1129E+02  0.3567E+03
   5.120  0.1112E+02  0.3568E+03
   5.130  0.1123E+02  0.3569E+03
   5.140  0.1451E+02  0.3570E+03
   5.150  0.1928E+02  0.3572E+03
   5.160  0.1800E+02  0.3574E+03
   5.170  0.2308E+02  0.3576E+03
   5.180  0.1690E+02  0.3578E+03
   5.190  0.1189E+02  0.3579E+03
   5.200  0.1172E+02  0.3580E+03
   5.210  0.1178E+02  0.3582E+03
   5.220  0.1272E+02  0.3583E+03
   5.230  0.1377E+02  0.3584E+03
   5.240  0.1076E+02  0.3585E+03
   5.250  0.1068E+02  0.3586E+03
   5.260  0.1075E+02  0.3587E+03
   5.270  0.1287E+02  0.3589E+03
   5.280  0.1357E+02  0.3590E+03
   5.290  0.1524E+02  0.3592E+03
   5.300  0.1491E+02  0.3593E+03
   5.310  0.1446E+02  0.3595E+03
   5.320  0.1553E+02  0.3596E+03
   5.330  0.1646E+02  0.3598E+03
   5.340  0.1466E+02  0.3600E+03
   5.350  0.1328E+02  0.3601E+03
   5.360  0.1236E+02  0.3602E+03
   5.370  0.1215E+02  0.3603E+03
   5.380  0.1112E+02  0.3605E+03
   5.390  0.1073E+02  0.3606E+03
   5.400  0.1090E+02  0.3607E+03
   5.410  0.1095E+02  0.3608E+03
   5.420  0.1104E+02  0.3609E+03
   5.430  0.1122E+02  0.3610E+03
   5.440  0.1001E+02  0.3611E+03
   5.450  0.9508E+01  0.3612E+03
   5.460  0.9174E+01  0.3613E+03
   5.470  0.9174E+01  0.3614E+03
   5.480  0.1187E+02  0.3615E+03
   5.490  0.1138E+02  0.3616E+03
   5.500  0.1147E+02  0.3617E+03
   5.510  0.1317E+02  0.3619E+03
   5.520  0.1446E+02  0.3620E+03
   5.530  0.1493E+02  0.3622E+03
   5.540  0.1734E+02  0.3623E+03
   5.550  0.1537E+02  0.3625E+03
   5.560  0.1217E+02  0.3626E+03
   5.570  0.1219E+02  0.3628E+03
   5.580  0.1117E+02  0.3629E+03
   5.590  0.1160E+02  0.3630E+03
   5.600  0.1205E+02  0.3631E+03
   5.610  0.1579E+02  0.3632E+03
   5.620  0.2219E+02  0.3635E+03
   5.630  0.1337E+02  0.3636E+03
   5.640  0.1112E+02  0.3638E+03
   5.650  0.1061E+02  0.3639E+03
   5.660  0.1081E+02  0.3640E+03
   5.670  0.1051E+02  0.3641E+03
   5.680  0.1164E+02  0.3642E+03
   5.690  0.1215E+02  0.3643E+03
   5.700  0.1211E+02  0.3644E+03
   5.710  0.1021E+02  0.3646E+03
   5.720  0.1086E+02  0.3647E+03
   5.730  0.1322E+02  0.3648E+03
   5.740  0.1415E+02  0.3649E+03
   5.750  0.1356E+02  0.3651E+03
   5.760  0.1374E+02  0.3652E+03
   5.770  0.1439E+02  0.3654E+03
   5.780  0.1583E+02  0.3655E+03
   5.790  0.1272E+02  0.3657E+03
   5.800  0.1172E+02  0.3658E+03
   5.810  0.1013E+02  0.3659E+03
   5.820  0.1123E+02  0.3660E+03
   5.830  0.1284E+02  0.3661E+03
   5.840  0.1476E+02  0.3663E+03
   5.850  0.1271E+02  0.3664E+03
   5.860  0.1466E+02  0.3665E+03
   5.870  0.1648E+02  0.3667E+03
   5.880  0.1909E+02  0.3669E+03
   5.890  0.1933E+02  0.3671E+03
   5.900  0.1696E+02  0.3673E+03
   5.910  0.1338E+02  0.3674E+03
   5.920  0.9581E+01  0.3675E+03
   5.930  0.1106E+02  0.3676E+03
   5.940  0.1236E+02  0.3678E+03
   5.950  0.1138E+02  0.3679E+03
   5.960  0.1184E+02  0.3680E+03
   5.970  0.1050E+02  0.3681E+03
   5.980  0.9732E+01  0.3682E+03
   5.990  0.1097E+02  0.3684E+03
   6.000  0.1197E+02  0.3685E+03
   6.010  0.1382E+02  0.3686E+03
   6.020  0.2023E+02  0.3688E+03
   6.030  0.1755E+02  0.3690E+03
